# E (eV) pdos(E) 
  0.758  0.000E+00
  0.768  0.000E+00
  0.778  0.000E+00
  0.788  0.000E+00
  0.798  0.000E+00
  0.808  0.000E+00
  0.818  0.000E+00
  0.828  0.000E+00
  0.838  0.000E+00
  0.848  0.000E+00
  0.858  0.000E+00
  0.868  0.000E+00
  0.878  0.000E+00
  0.888  0.000E+00
  0.898  0.000E+00
  0.908  0.000E+00
  0.918  0.000E+00
  0.928  0.000E+00
  0.938  0.000E+00
  0.948  0.000E+00
  0.958  0.000E+00
  0.968  0.000E+00
  0.978  0.000E+00
  0.988  0.000E+00
  0.998  0.000E+00
  1.008  0.000E+00
  1.018  0.000E+00
  1.028  0.000E+00
  1.038  0.000E+00
  1.048  0.000E+00
  1.058  0.000E+00
  1.068  0.000E+00
  1.078  0.000E+00
  1.088  0.000E+00
  1.098  0.000E+00
  1.108  0.000E+00
  1.118  0.000E+00
  1.128  0.000E+00
  1.138  0.000E+00
  1.148  0.000E+00
  1.158  0.000E+00
  1.168  0.000E+00
  1.178  0.000E+00
  1.188  0.000E+00
  1.198  0.000E+00
  1.208  0.000E+00
  1.218  0.000E+00
  1.228  0.000E+00
  1.238  0.000E+00
  1.248  0.000E+00
  1.258  0.000E+00
  1.268  0.000E+00
  1.278  0.000E+00
  1.288  0.000E+00
  1.298  0.000E+00
  1.308  0.000E+00
  1.318  0.000E+00
  1.328  0.000E+00
  1.338  0.000E+00
  1.348  0.000E+00
  1.358  0.000E+00
  1.368  0.000E+00
  1.378  0.000E+00
  1.388  0.000E+00
  1.398  0.000E+00
  1.408  0.000E+00
  1.418  0.000E+00
  1.428  0.000E+00
  1.438  0.000E+00
  1.448  0.000E+00
  1.458  0.000E+00
  1.468  0.000E+00
  1.478  0.000E+00
  1.488  0.000E+00
  1.498  0.000E+00
  1.508  0.000E+00
  1.518  0.000E+00
  1.528  0.000E+00
  1.538  0.000E+00
  1.548  0.000E+00
  1.558  0.000E+00
  1.568  0.000E+00
  1.578  0.000E+00
  1.588  0.000E+00
  1.598  0.000E+00
  1.608  0.000E+00
  1.618  0.000E+00
  1.628  0.000E+00
  1.638  0.000E+00
  1.648  0.000E+00
  1.658  0.000E+00
  1.668  0.000E+00
  1.678  0.000E+00
  1.688  0.000E+00
  1.698  0.000E+00
  1.708  0.000E+00
  1.718  0.000E+00
  1.728  0.000E+00
  1.738  0.000E+00
  1.748  0.000E+00
  1.758  0.000E+00
  1.768  0.000E+00
  1.778  0.000E+00
  1.788  0.000E+00
  1.798  0.000E+00
  1.808  0.000E+00
  1.818  0.000E+00
  1.828  0.000E+00
  1.838  0.000E+00
  1.848  0.000E+00
  1.858  0.000E+00
  1.868  0.000E+00
  1.878  0.000E+00
  1.888  0.000E+00
  1.898  0.000E+00
  1.908  0.000E+00
  1.918  0.000E+00
  1.928  0.000E+00
  1.938  0.000E+00
  1.948  0.000E+00
  1.958  0.000E+00
  1.968  0.000E+00
  1.978  0.000E+00
  1.988  0.000E+00
  1.998  0.000E+00
  2.008  0.000E+00
  2.018  0.000E+00
  2.028  0.000E+00
  2.038  0.000E+00
  2.048  0.000E+00
  2.058  0.000E+00
  2.068  0.000E+00
  2.078  0.000E+00
  2.088  0.000E+00
  2.098  0.000E+00
  2.108  0.000E+00
  2.118  0.000E+00
  2.128  0.000E+00
  2.138  0.000E+00
  2.148  0.000E+00
  2.158  0.000E+00
  2.168  0.000E+00
  2.178  0.000E+00
  2.188  0.000E+00
  2.198  0.000E+00
  2.208  0.000E+00
  2.218  0.000E+00
  2.228  0.000E+00
  2.238  0.000E+00
  2.248  0.000E+00
  2.258  0.000E+00
  2.268  0.000E+00
  2.278  0.000E+00
  2.288  0.000E+00
  2.298  0.000E+00
  2.308  0.000E+00
  2.318  0.000E+00
  2.328  0.000E+00
  2.338  0.000E+00
  2.348  0.000E+00
  2.358  0.000E+00
  2.368  0.000E+00
  2.378  0.000E+00
  2.388  0.000E+00
  2.398  0.000E+00
  2.408  0.000E+00
  2.418  0.000E+00
  2.428  0.000E+00
  2.438  0.000E+00
  2.448  0.366E-14
  2.458  0.612E-11
  2.468  0.346E-08
  2.478  0.664E-06
  2.488  0.436E-04
  2.498  0.964E-03
  2.508  0.724E-02
  2.518  0.185E-01
  2.528  0.167E-01
  2.538  0.161E-01
  2.548  0.760E-01
  2.558  0.190E+00
  2.568  0.217E+00
  2.578  0.132E+00
  2.588  0.380E-01
  2.598  0.140E-01
  2.608  0.790E-01
  2.618  0.214E+00
  2.628  0.199E+00
  2.638  0.109E+00
  2.648  0.273E+00
  2.658  0.544E+00
  2.668  0.446E+00
  2.678  0.167E+00
  2.688  0.292E-01
  2.698  0.135E-01
  2.708  0.624E-01
  2.718  0.118E+00
  2.728  0.111E+00
  2.738  0.260E+00
  2.748  0.608E+00
  2.758  0.726E+00
  2.768  0.457E+00
  2.778  0.140E+00
  2.788  0.134E+00
  2.798  0.384E+00
  2.808  0.419E+00
  2.818  0.237E+00
  2.828  0.367E+00
  2.838  0.569E+00
  2.848  0.355E+00
  2.858  0.836E-01
  2.868  0.374E-01
  2.878  0.143E+00
  2.888  0.233E+00
  2.898  0.263E+00
  2.908  0.758E+00
  2.918  0.134E+01
  2.928  0.911E+00
  2.938  0.290E+00
  2.948  0.845E-01
  2.958  0.205E+00
  2.968  0.559E+00
  2.978  0.735E+00
  2.988  0.591E+00
  2.998  0.535E+00
  3.008  0.512E+00
  3.018  0.280E+00
  3.028  0.800E-01
  3.038  0.393E-01
  3.048  0.210E+00
  3.058  0.635E+00
  3.068  0.104E+01
  3.078  0.110E+01
  3.088  0.121E+01
  3.098  0.131E+01
  3.108  0.659E+00
  3.118  0.309E+00
  3.128  0.770E+00
  3.138  0.127E+01
  3.148  0.110E+01
  3.158  0.730E+00
  3.168  0.739E+00
  3.178  0.723E+00
  3.188  0.556E+00
  3.198  0.748E+00
  3.208  0.965E+00
  3.218  0.125E+01
  3.228  0.203E+01
  3.238  0.252E+01
  3.248  0.182E+01
  3.258  0.909E+00
  3.268  0.727E+00
  3.278  0.100E+01
  3.288  0.140E+01
  3.298  0.141E+01
  3.308  0.104E+01
  3.318  0.871E+00
  3.328  0.664E+00
  3.338  0.744E+00
  3.348  0.129E+01
  3.358  0.174E+01
  3.368  0.184E+01
  3.378  0.137E+01
  3.388  0.906E+00
  3.398  0.756E+00
  3.408  0.645E+00
  3.418  0.743E+00
  3.428  0.146E+01
  3.438  0.211E+01
  3.448  0.167E+01
  3.458  0.117E+01
  3.468  0.117E+01
  3.478  0.984E+00
  3.488  0.733E+00
  3.498  0.112E+01
  3.508  0.148E+01
  3.518  0.120E+01
  3.528  0.700E+00
  3.538  0.707E+00
  3.548  0.102E+01
  3.558  0.932E+00
  3.568  0.763E+00
  3.578  0.841E+00
  3.588  0.977E+00
  3.598  0.150E+01
  3.608  0.188E+01
  3.618  0.136E+01
  3.628  0.104E+01
  3.638  0.980E+00
  3.648  0.886E+00
  3.658  0.916E+00
  3.668  0.964E+00
  3.678  0.983E+00
  3.688  0.135E+01
  3.698  0.182E+01
  3.708  0.205E+01
  3.718  0.204E+01
  3.728  0.163E+01
  3.738  0.830E+00
  3.748  0.522E+00
  3.758  0.832E+00
  3.768  0.103E+01
  3.778  0.105E+01
  3.788  0.123E+01
  3.798  0.172E+01
  3.808  0.185E+01
  3.818  0.136E+01
  3.828  0.855E+00
  3.838  0.952E+00
  3.848  0.162E+01
  3.858  0.238E+01
  3.868  0.243E+01
  3.878  0.201E+01
  3.888  0.127E+01
  3.898  0.791E+00
  3.908  0.126E+01
  3.918  0.208E+01
  3.928  0.260E+01
  3.938  0.297E+01
  3.948  0.219E+01
  3.958  0.153E+01
  3.968  0.203E+01
  3.978  0.194E+01
  3.988  0.169E+01
  3.998  0.240E+01
  4.008  0.292E+01
  4.018  0.289E+01
  4.028  0.323E+01
  4.038  0.373E+01
  4.048  0.359E+01
  4.058  0.286E+01
  4.068  0.286E+01
  4.078  0.286E+01
  4.088  0.228E+01
  4.098  0.188E+01
  4.108  0.193E+01
  4.118  0.219E+01
  4.128  0.229E+01
  4.138  0.222E+01
  4.148  0.250E+01
  4.158  0.299E+01
  4.168  0.388E+01
  4.178  0.438E+01
  4.188  0.418E+01
  4.198  0.357E+01
  4.208  0.267E+01
  4.218  0.256E+01
  4.228  0.341E+01
  4.238  0.396E+01
  4.248  0.354E+01
  4.258  0.246E+01
  4.268  0.163E+01
  4.278  0.196E+01
  4.288  0.215E+01
  4.298  0.196E+01
  4.308  0.238E+01
  4.318  0.309E+01
  4.328  0.327E+01
  4.338  0.273E+01
  4.348  0.193E+01
  4.358  0.230E+01
  4.368  0.318E+01
  4.378  0.374E+01
  4.388  0.403E+01
  4.398  0.300E+01
  4.408  0.241E+01
  4.418  0.349E+01
  4.428  0.499E+01
  4.438  0.585E+01
  4.448  0.602E+01
  4.458  0.561E+01
  4.468  0.533E+01
  4.478  0.540E+01
  4.488  0.582E+01
  4.498  0.579E+01
  4.508  0.534E+01
  4.518  0.570E+01
  4.528  0.568E+01
  4.538  0.474E+01
  4.548  0.383E+01
  4.558  0.345E+01
  4.568  0.428E+01
  4.578  0.457E+01
  4.588  0.331E+01
  4.598  0.185E+01
  4.608  0.102E+01
  4.618  0.130E+01
  4.628  0.270E+01
  4.638  0.343E+01
  4.648  0.259E+01
  4.658  0.158E+01
  4.668  0.105E+01
  4.678  0.922E+00
  4.688  0.121E+01
  4.698  0.146E+01
  4.708  0.977E+00
  4.718  0.515E+00
  4.728  0.433E+00
  4.738  0.460E+00
  4.748  0.549E+00
  4.758  0.517E+00
  4.768  0.454E+00
  4.778  0.739E+00
  4.788  0.122E+01
  4.798  0.124E+01
  4.808  0.109E+01
  4.818  0.115E+01
  4.828  0.925E+00
  4.838  0.467E+00
  4.848  0.142E+00
  4.858  0.198E-01
  4.868  0.104E-02
  4.878  0.209E-04
  4.888  0.209E-03
  4.898  0.790E-02
  4.908  0.110E+00
  4.918  0.586E+00
  4.928  0.131E+01
  4.938  0.153E+01
  4.948  0.159E+01
  4.958  0.226E+01
  4.968  0.336E+01
  4.978  0.507E+01
  4.988  0.755E+01
  4.998  0.873E+01
  5.008  0.773E+01
  5.018  0.735E+01
  5.028  0.767E+01
  5.038  0.742E+01
  5.048  0.616E+01
  5.058  0.411E+01
  5.068  0.415E+01
  5.078  0.575E+01
  5.088  0.682E+01
  5.098  0.640E+01
  5.108  0.531E+01
  5.118  0.495E+01
  5.128  0.513E+01
  5.138  0.602E+01
  5.148  0.656E+01
  5.158  0.648E+01
  5.168  0.588E+01
  5.178  0.493E+01
  5.188  0.394E+01
  5.198  0.324E+01
  5.208  0.310E+01
  5.218  0.387E+01
  5.228  0.516E+01
  5.238  0.509E+01
  5.248  0.349E+01
  5.258  0.159E+01
  5.268  0.103E+01
  5.278  0.131E+01
  5.288  0.978E+00
  5.298  0.497E+00
  5.308  0.389E+00
  5.318  0.479E+00
  5.328  0.900E+00
  5.338  0.140E+01
  5.348  0.174E+01
  5.358  0.144E+01
  5.368  0.774E+00
  5.378  0.707E+00
  5.388  0.154E+01
  5.398  0.237E+01
  5.408  0.227E+01
  5.418  0.167E+01
  5.428  0.161E+01
  5.438  0.179E+01
  5.448  0.183E+01
  5.458  0.167E+01
  5.468  0.139E+01
  5.478  0.139E+01
  5.488  0.124E+01
  5.498  0.697E+00
  5.508  0.646E+00
  5.518  0.116E+01
  5.528  0.161E+01
  5.538  0.168E+01
  5.548  0.167E+01
  5.558  0.202E+01
  5.568  0.196E+01
  5.578  0.180E+01
  5.588  0.233E+01
  5.598  0.298E+01
  5.608  0.248E+01
  5.618  0.201E+01
  5.628  0.189E+01
  5.638  0.146E+01
  5.648  0.132E+01
  5.658  0.167E+01
  5.668  0.204E+01
  5.678  0.193E+01
  5.688  0.168E+01
  5.698  0.203E+01
  5.708  0.235E+01
  5.718  0.219E+01
  5.728  0.168E+01
  5.738  0.123E+01
  5.748  0.102E+01
  5.758  0.111E+01
  5.768  0.137E+01
  5.778  0.132E+01
  5.788  0.127E+01
  5.798  0.129E+01
  5.808  0.956E+00
  5.818  0.840E+00
  5.828  0.113E+01
  5.838  0.112E+01
  5.848  0.110E+01
  5.858  0.944E+00
  5.868  0.708E+00
  5.878  0.853E+00
  5.888  0.106E+01
  5.898  0.117E+01
  5.908  0.127E+01
  5.918  0.118E+01
  5.928  0.882E+00
  5.938  0.864E+00
  5.948  0.122E+01
  5.958  0.123E+01
  5.968  0.126E+01
  5.978  0.164E+01
  5.988  0.204E+01
  5.998  0.250E+01
  6.008  0.214E+01
  6.018  0.159E+01
  6.028  0.144E+01
  6.038  0.111E+01
  6.048  0.687E+00
  6.058  0.426E+00
  6.068  0.429E+00
  6.078  0.658E+00
  6.088  0.703E+00
  6.098  0.768E+00
  6.108  0.112E+01
  6.118  0.147E+01
  6.128  0.131E+01
  6.138  0.867E+00
  6.148  0.973E+00
  6.158  0.138E+01
  6.168  0.165E+01
  6.178  0.165E+01
  6.188  0.128E+01
  6.198  0.129E+01
  6.208  0.150E+01
  6.218  0.132E+01
  6.228  0.114E+01
  6.238  0.115E+01
  6.248  0.102E+01
  6.258  0.903E+00
  6.268  0.960E+00
  6.278  0.107E+01
  6.288  0.136E+01
  6.298  0.158E+01
  6.308  0.138E+01
  6.318  0.109E+01
  6.328  0.102E+01
  6.338  0.815E+00
  6.348  0.632E+00
  6.358  0.525E+00
  6.368  0.511E+00
  6.378  0.456E+00
  6.388  0.576E+00
  6.398  0.778E+00
  6.408  0.869E+00
  6.418  0.859E+00
  6.428  0.794E+00
  6.438  0.846E+00
  6.448  0.868E+00
  6.458  0.828E+00
  6.468  0.875E+00
  6.478  0.836E+00
  6.488  0.809E+00
  6.498  0.715E+00
  6.508  0.480E+00
  6.518  0.386E+00
  6.528  0.683E+00
  6.538  0.894E+00
  6.548  0.863E+00
  6.558  0.810E+00
  6.568  0.798E+00
  6.578  0.699E+00
  6.588  0.683E+00
  6.598  0.728E+00
  6.608  0.668E+00
  6.618  0.731E+00
  6.628  0.630E+00
  6.638  0.621E+00
  6.648  0.897E+00
  6.658  0.945E+00
  6.668  0.866E+00
  6.678  0.998E+00
  6.688  0.121E+01
  6.698  0.132E+01
  6.708  0.149E+01
  6.718  0.176E+01
  6.728  0.161E+01
  6.738  0.142E+01
  6.748  0.132E+01
  6.758  0.107E+01
  6.768  0.888E+00
  6.778  0.754E+00
  6.788  0.558E+00
  6.798  0.471E+00
  6.808  0.616E+00
  6.818  0.681E+00
  6.828  0.550E+00
  6.838  0.671E+00
  6.848  0.822E+00
  6.858  0.802E+00
  6.868  0.808E+00
  6.878  0.620E+00
  6.888  0.460E+00
  6.898  0.357E+00
  6.908  0.208E+00
  6.918  0.167E+00
  6.928  0.253E+00
  6.938  0.355E+00
  6.948  0.404E+00
  6.958  0.426E+00
  6.968  0.372E+00
  6.978  0.430E+00
  6.988  0.438E+00
  6.998  0.243E+00
  7.008  0.171E+00
  7.018  0.266E+00
  7.028  0.284E+00
  7.038  0.230E+00
  7.048  0.262E+00
  7.058  0.254E+00
  7.068  0.191E+00
  7.078  0.202E+00
  7.088  0.185E+00
  7.098  0.208E+00
  7.108  0.224E+00
  7.118  0.263E+00
  7.128  0.352E+00
  7.138  0.387E+00
  7.148  0.298E+00
  7.158  0.245E+00
  7.168  0.262E+00
  7.178  0.235E+00
  7.188  0.197E+00
  7.198  0.247E+00
  7.208  0.378E+00
  7.218  0.468E+00
  7.228  0.425E+00
  7.238  0.354E+00
  7.248  0.319E+00
  7.258  0.322E+00
  7.268  0.334E+00
  7.278  0.257E+00
  7.288  0.234E+00
  7.298  0.333E+00
  7.308  0.308E+00
  7.318  0.174E+00
  7.328  0.225E+00
  7.338  0.413E+00
  7.348  0.429E+00
  7.358  0.220E+00
  7.368  0.118E+00
  7.378  0.161E+00
  7.388  0.216E+00
  7.398  0.253E+00
  7.408  0.231E+00
  7.418  0.116E+00
  7.428  0.654E-01
  7.438  0.118E+00
  7.448  0.177E+00
  7.458  0.172E+00
  7.468  0.100E+00
  7.478  0.626E-01
  7.488  0.686E-01
  7.498  0.750E-01
  7.508  0.482E-01
  7.518  0.198E-01
  7.528  0.179E-01
  7.538  0.207E-01
  7.548  0.115E-01
  7.558  0.265E-02
  7.568  0.240E-03
  7.578  0.798E-05
  7.588  0.934E-07
  7.598  0.377E-09
  7.608  0.521E-12
  7.618  0.557E-27
  7.628  0.642E-30
  7.638  0.000E+00
  7.648  0.000E+00
  7.658  0.000E+00
  7.668  0.000E+00
  7.678  0.000E+00
  7.688  0.000E+00
  7.698  0.000E+00
  7.708  0.000E+00
  7.718  0.000E+00
  7.728  0.000E+00
  7.738  0.000E+00
  7.748  0.000E+00
  7.758  0.000E+00
  7.768  0.000E+00
  7.778  0.000E+00
  7.788  0.000E+00
  7.798  0.000E+00
  7.808  0.000E+00
  7.818  0.000E+00
  7.828  0.000E+00
  7.838  0.000E+00
  7.848  0.000E+00
  7.858  0.000E+00
  7.868  0.000E+00
  7.878  0.000E+00
  7.888  0.000E+00
  7.898  0.000E+00
  7.908  0.000E+00
  7.918  0.000E+00
  7.928  0.000E+00
  7.938  0.000E+00
  7.948  0.000E+00
  7.958  0.000E+00
  7.968  0.000E+00
  7.978  0.000E+00
  7.988  0.000E+00
  7.998  0.000E+00
  8.008  0.000E+00
  8.018  0.000E+00
  8.028  0.000E+00
  8.038  0.000E+00
  8.048  0.000E+00
  8.058  0.000E+00
  8.068  0.000E+00
  8.078  0.000E+00
  8.088  0.000E+00
  8.098  0.000E+00
  8.108  0.000E+00
  8.118  0.000E+00
  8.128  0.000E+00
  8.138  0.000E+00
  8.148  0.000E+00
  8.158  0.000E+00
  8.168  0.000E+00
  8.178  0.000E+00
  8.188  0.000E+00
  8.198  0.000E+00
  8.208  0.000E+00
  8.218  0.000E+00
  8.228  0.000E+00
  8.238  0.000E+00
  8.248  0.000E+00
  8.258  0.000E+00
  8.268  0.000E+00
  8.278  0.000E+00
  8.288  0.000E+00
  8.298  0.000E+00
  8.308  0.000E+00
  8.318  0.000E+00
  8.328  0.000E+00
  8.338  0.000E+00
  8.348  0.000E+00
  8.358  0.000E+00
  8.368  0.000E+00
  8.378  0.000E+00
  8.388  0.000E+00
  8.398  0.000E+00
  8.408  0.000E+00
  8.418  0.000E+00
  8.428  0.000E+00
  8.438  0.000E+00
  8.448  0.000E+00
  8.458  0.000E+00
  8.468  0.000E+00
  8.478  0.000E+00
  8.488  0.000E+00
  8.498  0.000E+00
  8.508  0.000E+00
  8.518  0.000E+00
  8.528  0.000E+00
  8.538  0.000E+00
  8.548  0.000E+00
  8.558  0.000E+00
  8.568  0.000E+00
  8.578  0.000E+00
  8.588  0.000E+00
  8.598  0.000E+00
  8.608  0.000E+00
  8.618  0.000E+00
  8.628  0.000E+00
  8.638  0.000E+00
  8.648  0.000E+00
  8.658  0.000E+00
  8.668  0.000E+00
  8.678  0.000E+00
  8.688  0.000E+00
  8.698  0.000E+00
  8.708  0.000E+00
  8.718  0.000E+00
  8.728  0.000E+00
  8.738  0.000E+00
  8.748  0.000E+00
  8.758  0.000E+00
  8.768  0.000E+00
  8.778  0.000E+00
  8.788  0.000E+00
  8.798  0.000E+00
  8.808  0.000E+00
  8.818  0.000E+00
  8.828  0.000E+00
  8.838  0.000E+00
  8.848  0.000E+00
  8.858  0.000E+00
  8.868  0.000E+00
  8.878  0.000E+00
  8.888  0.000E+00
  8.898  0.000E+00
  8.908  0.000E+00
  8.918  0.000E+00
  8.928  0.000E+00
  8.938  0.000E+00
  8.948  0.000E+00
  8.958  0.000E+00
  8.968  0.000E+00
  8.978  0.000E+00
  8.988  0.000E+00
  8.998  0.000E+00
  9.008  0.000E+00
  9.018  0.000E+00
  9.028  0.000E+00
  9.038  0.000E+00
  9.048  0.000E+00
  9.058  0.000E+00
  9.068  0.000E+00
  9.078  0.000E+00
  9.088  0.000E+00
  9.098  0.000E+00
  9.108  0.000E+00
  9.118  0.000E+00
  9.128  0.000E+00
  9.138  0.000E+00
  9.148  0.000E+00
  9.158  0.000E+00
  9.168  0.000E+00
  9.178  0.000E+00
  9.188  0.000E+00
  9.198  0.000E+00
  9.208  0.000E+00
  9.218  0.000E+00
  9.228  0.000E+00
  9.238  0.000E+00
  9.248  0.000E+00
  9.258  0.000E+00
  9.268  0.000E+00
  9.278  0.000E+00
  9.288  0.000E+00
  9.298  0.000E+00
  9.308  0.000E+00
  9.318  0.000E+00
  9.328  0.000E+00
  9.338  0.000E+00
  9.348  0.000E+00
  9.358  0.000E+00
  9.368  0.000E+00
  9.378  0.000E+00
  9.388  0.000E+00
  9.398  0.000E+00
  9.408  0.000E+00
  9.418  0.117E-13
  9.428  0.212E-10
  9.438  0.131E-07
  9.448  0.275E-05
  9.458  0.195E-03
  9.468  0.472E-02
  9.478  0.387E-01
  9.488  0.108E+00
  9.498  0.102E+00
  9.508  0.326E-01
  9.518  0.370E-02
  9.528  0.704E-02
  9.538  0.107E+00
  9.548  0.583E+00
  9.558  0.116E+01
  9.568  0.926E+00
  9.578  0.422E+00
  9.588  0.363E+00
  9.598  0.293E+00
  9.608  0.892E-01
  9.618  0.113E-01
  9.628  0.411E-01
  9.638  0.302E+00
  9.648  0.866E+00
  9.658  0.114E+01
  9.668  0.836E+00
  9.678  0.816E+00
  9.688  0.135E+01
  9.698  0.101E+01
  9.708  0.539E+00
  9.718  0.123E+01
  9.728  0.209E+01
  9.738  0.161E+01
  9.748  0.728E+00
  9.758  0.277E+00
  9.768  0.591E-01
  9.778  0.480E-02
  9.788  0.132E-02
  9.798  0.362E-01
  9.808  0.401E+00
  9.818  0.175E+01
  9.828  0.337E+01
  9.838  0.314E+01
  9.848  0.143E+01
  9.858  0.418E+00
  9.868  0.887E+00
  9.878  0.265E+01
  9.888  0.345E+01
  9.898  0.206E+01
  9.908  0.118E+01
  9.918  0.199E+01
  9.928  0.190E+01
  9.938  0.652E+00
  9.948  0.126E+00
  9.958  0.217E+00
  9.968  0.326E+00
  9.978  0.258E+00
  9.988  0.650E+00
  9.998  0.222E+01
 10.008  0.471E+01
 10.018  0.578E+01
 10.028  0.490E+01
 10.038  0.284E+01
 10.048  0.108E+01
 10.058  0.209E+01
 10.068  0.480E+01
 10.078  0.434E+01
 10.088  0.285E+01
 10.098  0.351E+01
 10.108  0.246E+01
 10.118  0.617E+00
 10.128  0.643E-01
 10.138  0.169E+00
 10.148  0.100E+01
 10.158  0.272E+01
 10.168  0.491E+01
 10.178  0.738E+01
 10.188  0.863E+01
 10.198  0.816E+01
 10.208  0.621E+01
 10.218  0.594E+01
 10.228  0.746E+01
 10.238  0.712E+01
 10.248  0.506E+01
 10.258  0.413E+01
 10.268  0.475E+01
 10.278  0.522E+01
 10.288  0.392E+01
 10.298  0.281E+01
 10.308  0.368E+01
 10.318  0.563E+01
 10.328  0.891E+01
 10.338  0.103E+02
 10.348  0.925E+01
 10.358  0.965E+01
 10.368  0.846E+01
 10.378  0.620E+01
 10.388  0.474E+01
 10.398  0.547E+01
 10.408  0.545E+01
 10.418  0.418E+01
 10.428  0.423E+01
 10.438  0.442E+01
 10.448  0.420E+01
 10.458  0.347E+01
 10.468  0.547E+01
 10.478  0.951E+01
 10.488  0.801E+01
 10.498  0.454E+01
 10.508  0.260E+01
 10.518  0.132E+01
 10.528  0.157E+01
 10.538  0.366E+01
 10.548  0.680E+01
 10.558  0.791E+01
 10.568  0.645E+01
 10.578  0.502E+01
 10.588  0.520E+01
 10.598  0.714E+01
 10.608  0.812E+01
 10.618  0.607E+01
 10.628  0.619E+01
 10.638  0.924E+01
 10.648  0.103E+02
 10.658  0.106E+02
 10.668  0.125E+02
 10.678  0.125E+02
 10.688  0.105E+02
 10.698  0.844E+01
 10.708  0.932E+01
 10.718  0.127E+02
 10.728  0.166E+02
 10.738  0.166E+02
 10.748  0.137E+02
 10.758  0.131E+02
 10.768  0.123E+02
 10.778  0.111E+02
 10.788  0.126E+02
 10.798  0.193E+02
 10.808  0.251E+02
 10.818  0.250E+02
 10.828  0.234E+02
 10.838  0.194E+02
 10.848  0.137E+02
 10.858  0.141E+02
 10.868  0.189E+02
 10.878  0.201E+02
 10.888  0.200E+02
 10.898  0.206E+02
 10.908  0.189E+02
 10.918  0.160E+02
 10.928  0.194E+02
 10.938  0.221E+02
 10.948  0.180E+02
 10.958  0.144E+02
 10.968  0.119E+02
 10.978  0.953E+01
 10.988  0.111E+02
 10.998  0.143E+02
 11.008  0.133E+02
 11.018  0.957E+01
 11.028  0.676E+01
 11.038  0.660E+01
 11.048  0.888E+01
 11.058  0.917E+01
 11.068  0.835E+01
 11.078  0.736E+01
 11.088  0.580E+01
 11.098  0.757E+01
 11.108  0.119E+02
 11.118  0.166E+02
 11.128  0.197E+02
 11.138  0.176E+02
 11.148  0.118E+02
 11.158  0.109E+02
 11.168  0.151E+02
 11.178  0.171E+02
 11.188  0.152E+02
 11.198  0.149E+02
 11.208  0.133E+02
 11.218  0.927E+01
 11.228  0.683E+01
 11.238  0.708E+01
 11.248  0.111E+02
 11.258  0.108E+02
 11.268  0.680E+01
 11.278  0.585E+01
 11.288  0.842E+01
 11.298  0.102E+02
 11.308  0.978E+01
 11.318  0.845E+01
 11.328  0.566E+01
 11.338  0.354E+01
 11.348  0.423E+01
 11.358  0.556E+01
 11.368  0.655E+01
 11.378  0.846E+01
 11.388  0.764E+01
 11.398  0.448E+01
 11.408  0.238E+01
 11.418  0.305E+01
 11.428  0.589E+01
 11.438  0.613E+01
 11.448  0.508E+01
 11.458  0.102E+02
 11.468  0.251E+02
 11.478  0.368E+02
 11.488  0.334E+02
 11.498  0.271E+02
 11.508  0.279E+02
 11.518  0.301E+02
 11.528  0.330E+02
 11.538  0.342E+02
 11.548  0.348E+02
 11.558  0.394E+02
 11.568  0.419E+02
 11.578  0.502E+02
 11.588  0.699E+02
 11.598  0.783E+02
 11.608  0.630E+02
 11.618  0.376E+02
 11.628  0.187E+02
 11.638  0.663E+01
 11.648  0.125E+01
 11.658  0.103E+00
 11.668  0.346E-02
 11.678  0.444E-04
 11.688  0.210E-06
 11.698  0.355E-09
 11.708  0.176E-12
 11.718  0.000E+00
 11.728  0.000E+00
 11.738  0.000E+00
 11.748  0.000E+00
 11.758  0.000E+00
 11.768  0.000E+00
 11.778  0.000E+00
 11.788  0.000E+00
 11.798  0.000E+00
 11.808  0.000E+00
 11.818  0.000E+00
 11.828  0.000E+00
 11.838  0.000E+00
 11.848  0.000E+00
 11.858  0.000E+00
 11.868  0.000E+00
 11.878  0.000E+00
 11.888  0.000E+00
 11.898  0.000E+00
 11.908  0.000E+00
 11.918  0.000E+00
 11.928  0.000E+00
 11.938  0.000E+00
 11.948  0.000E+00
 11.958  0.000E+00
 11.968  0.000E+00
 11.978  0.000E+00
 11.988  0.000E+00
 11.998  0.000E+00
 12.008  0.000E+00
 12.018  0.000E+00
 12.028  0.000E+00
 12.038  0.000E+00
 12.048  0.000E+00
 12.058  0.000E+00
 12.068  0.000E+00
 12.078  0.000E+00
 12.088  0.000E+00
 12.098  0.000E+00
 12.108  0.000E+00
 12.118  0.000E+00
 12.128  0.000E+00
 12.138  0.000E+00
 12.148  0.000E+00
 12.158  0.000E+00
 12.168  0.000E+00
 12.178  0.000E+00
 12.188  0.000E+00
 12.198  0.000E+00
 12.208  0.000E+00
 12.218  0.000E+00
 12.228  0.000E+00
 12.238  0.000E+00
 12.248  0.000E+00
 12.258  0.000E+00
 12.268  0.000E+00
 12.278  0.000E+00
 12.288  0.000E+00
 12.298  0.000E+00
 12.308  0.000E+00
 12.318  0.000E+00
 12.328  0.000E+00
 12.338  0.000E+00
 12.348  0.000E+00
 12.358  0.000E+00
 12.368  0.000E+00
 12.378  0.000E+00
 12.388  0.000E+00
 12.398  0.000E+00
 12.408  0.000E+00
 12.418  0.000E+00
 12.428  0.000E+00
 12.438  0.000E+00
 12.448  0.000E+00
 12.458  0.000E+00
 12.468  0.000E+00
 12.478  0.000E+00
 12.488  0.000E+00
 12.498  0.000E+00
 12.508  0.000E+00
 12.518  0.000E+00
 12.528  0.000E+00
 12.538  0.000E+00
 12.548  0.000E+00
 12.558  0.000E+00
 12.568  0.000E+00
 12.578  0.000E+00
 12.588  0.000E+00
 12.598  0.000E+00
 12.608  0.000E+00
 12.618  0.000E+00
 12.628  0.000E+00
 12.638  0.000E+00
 12.648  0.000E+00
 12.658  0.000E+00
 12.668  0.000E+00
 12.678  0.000E+00
 12.688  0.000E+00
 12.698  0.000E+00
 12.708  0.000E+00
 12.718  0.000E+00
 12.728  0.000E+00
 12.738  0.000E+00
 12.748  0.000E+00
 12.758  0.000E+00
 12.768  0.000E+00
 12.778  0.000E+00
 12.788  0.000E+00
 12.798  0.000E+00
 12.808  0.000E+00
 12.818  0.000E+00
 12.828  0.000E+00
 12.838  0.000E+00
 12.848  0.000E+00
 12.858  0.000E+00
 12.868  0.000E+00
 12.878  0.000E+00
 12.888  0.000E+00
 12.898  0.204E-10
 12.908  0.145E-07
 12.918  0.354E-05
 12.928  0.302E-03
 12.938  0.920E-02
 12.948  0.107E+00
 12.958  0.524E+00
 12.968  0.120E+01
 12.978  0.124E+01
 12.988  0.522E+00
 12.998  0.959E-01
 13.008  0.228E+00
 13.018  0.116E+01
 13.028  0.203E+01
 13.038  0.129E+01
 13.048  0.813E+00
 13.058  0.166E+01
 13.068  0.214E+01
 13.078  0.260E+01
 13.088  0.379E+01
 13.098  0.287E+01
 13.108  0.902E+00
 13.118  0.256E+00
 13.128  0.311E+00
 13.138  0.659E+00
 13.148  0.214E+01
 13.158  0.404E+01
 13.168  0.459E+01
 13.178  0.429E+01
 13.188  0.332E+01
 13.198  0.304E+01
 13.208  0.450E+01
 13.218  0.494E+01
 13.228  0.403E+01
 13.238  0.415E+01
 13.248  0.403E+01
 13.258  0.338E+01
 13.268  0.285E+01
 13.278  0.327E+01
 13.288  0.483E+01
 13.298  0.461E+01
 13.308  0.331E+01
 13.318  0.338E+01
 13.328  0.325E+01
 13.338  0.373E+01
 13.348  0.614E+01
 13.358  0.777E+01
 13.368  0.700E+01
 13.378  0.447E+01
 13.388  0.451E+01
 13.398  0.695E+01
 13.408  0.852E+01
 13.418  0.972E+01
 13.428  0.101E+02
 13.438  0.977E+01
 13.448  0.106E+02
 13.458  0.125E+02
 13.468  0.124E+02
 13.478  0.931E+01
 13.488  0.754E+01
 13.498  0.983E+01
 13.508  0.121E+02
 13.518  0.132E+02
 13.528  0.137E+02
 13.538  0.132E+02
 13.548  0.104E+02
 13.558  0.853E+01
 13.568  0.107E+02
 13.578  0.136E+02
 13.588  0.147E+02
 13.598  0.139E+02
 13.608  0.128E+02
 13.618  0.117E+02
 13.628  0.124E+02
 13.638  0.111E+02
 13.648  0.782E+01
 13.658  0.826E+01
 13.668  0.102E+02
 13.678  0.115E+02
 13.688  0.131E+02
 13.698  0.116E+02
 13.708  0.111E+02
 13.718  0.146E+02
 13.728  0.180E+02
 13.738  0.193E+02
 13.748  0.202E+02
 13.758  0.212E+02
 13.768  0.201E+02
 13.778  0.199E+02
 13.788  0.235E+02
 13.798  0.244E+02
 13.808  0.231E+02
 13.818  0.236E+02
 13.828  0.233E+02
 13.838  0.236E+02
 13.848  0.270E+02
 13.858  0.322E+02
 13.868  0.340E+02
 13.878  0.315E+02
 13.888  0.293E+02
 13.898  0.292E+02
 13.908  0.253E+02
 13.918  0.170E+02
 13.928  0.111E+02
 13.938  0.111E+02
 13.948  0.137E+02
 13.958  0.122E+02
 13.968  0.676E+01
 13.978  0.373E+01
 13.988  0.357E+01
 13.998  0.417E+01
 14.008  0.551E+01
 14.018  0.497E+01
 14.028  0.277E+01
 14.038  0.208E+01
 14.048  0.222E+01
 14.058  0.220E+01
 14.068  0.176E+01
 14.078  0.136E+01
 14.088  0.843E+00
 14.098  0.344E+00
 14.108  0.105E+00
 14.118  0.190E-01
 14.128  0.138E-02
 14.138  0.352E-04
 14.148  0.307E-06
 14.158  0.912E-09
 14.168  0.920E-12
 14.178  0.000E+00
 14.188  0.000E+00
 14.198  0.000E+00
 14.208  0.000E+00
 14.218  0.000E+00
 14.228  0.000E+00
 14.238  0.000E+00
 14.248  0.000E+00
 14.258  0.000E+00
 14.268  0.000E+00
 14.278  0.000E+00
 14.288  0.000E+00
 14.298  0.000E+00
 14.308  0.000E+00
 14.318  0.000E+00
 14.328  0.000E+00
 14.338  0.000E+00
 14.348  0.000E+00
 14.358  0.000E+00
 14.368  0.000E+00
 14.378  0.000E+00
 14.388  0.000E+00
 14.398  0.000E+00
 14.408  0.000E+00
 14.418  0.000E+00
 14.428  0.000E+00
 14.438  0.000E+00
 14.448  0.000E+00
 14.458  0.000E+00
 14.468  0.000E+00
 14.478  0.000E+00
 14.488  0.000E+00
 14.498  0.000E+00
 14.508  0.000E+00
 14.518  0.000E+00
 14.528  0.000E+00
 14.538  0.000E+00
 14.548  0.000E+00
 14.558  0.000E+00
 14.568  0.000E+00
 14.578  0.000E+00
 14.588  0.000E+00
 14.598  0.000E+00
 14.608  0.000E+00
 14.618  0.000E+00
 14.628  0.000E+00
 14.638  0.000E+00
 14.648  0.000E+00
 14.658  0.000E+00
 14.668  0.000E+00
 14.678  0.000E+00
 14.688  0.000E+00
 14.698  0.000E+00
 14.708  0.000E+00
 14.718  0.000E+00
 14.728  0.000E+00
 14.738  0.000E+00
 14.748  0.000E+00
 14.758  0.000E+00
 14.768  0.000E+00
 14.778  0.000E+00
 14.788  0.000E+00
 14.798  0.000E+00
 14.808  0.000E+00
 14.818  0.000E+00
 14.828  0.000E+00
 14.838  0.000E+00
 14.848  0.000E+00
 14.858  0.000E+00
 14.868  0.000E+00
 14.878  0.000E+00
 14.888  0.000E+00
 14.898  0.000E+00
 14.908  0.000E+00
 14.918  0.000E+00
 14.928  0.000E+00
 14.938  0.000E+00
 14.948  0.000E+00
 14.958  0.000E+00
 14.968  0.000E+00
 14.978  0.000E+00
 14.988  0.000E+00
 14.998  0.000E+00
 15.008  0.000E+00
 15.018  0.000E+00
 15.028  0.000E+00
 15.038  0.000E+00
 15.048  0.000E+00
 15.058  0.000E+00
 15.068  0.000E+00
 15.078  0.000E+00
 15.088  0.000E+00
 15.098  0.000E+00
 15.108  0.000E+00
 15.118  0.000E+00
 15.128  0.000E+00
 15.138  0.000E+00
 15.148  0.000E+00
 15.158  0.000E+00
 15.168  0.000E+00
 15.178  0.000E+00
 15.188  0.000E+00
 15.198  0.000E+00
 15.208  0.000E+00
 15.218  0.000E+00
 15.228  0.000E+00
 15.238  0.000E+00
 15.248  0.000E+00
 15.258  0.000E+00
 15.268  0.000E+00
 15.278  0.000E+00
 15.288  0.000E+00
 15.298  0.000E+00
 15.308  0.000E+00
 15.318  0.000E+00
 15.328  0.000E+00
 15.338  0.000E+00
 15.348  0.000E+00
 15.358  0.000E+00
 15.368  0.000E+00
 15.378  0.000E+00
 15.388  0.306E-15
 15.398  0.230E-12
 15.408  0.588E-10
 15.418  0.512E-08
 15.428  0.150E-06
 15.438  0.150E-05
 15.448  0.508E-05
 15.458  0.588E-05
 15.468  0.229E-05
 15.478  0.304E-06
 15.488  0.137E-07
 15.498  0.221E-09
 15.508  0.214E-08
 15.518  0.141E-06
 15.528  0.315E-05
 15.538  0.239E-04
 15.548  0.615E-04
 15.558  0.583E-04
 15.568  0.848E-04
 15.578  0.364E-03
 15.588  0.648E-03
 15.598  0.393E-03
 15.608  0.808E-04
 15.618  0.564E-05
 15.628  0.134E-06
 15.638  0.108E-08
 15.648  0.323E-11
 15.658  0.170E-09
 15.668  0.345E-07
 15.678  0.238E-05
 15.688  0.556E-04
 15.698  0.441E-03
 15.708  0.118E-02
 15.718  0.108E-02
 15.728  0.337E-03
 15.738  0.354E-04
 15.748  0.126E-05
 15.758  0.160E-07
 15.768  0.129E-06
 15.778  0.970E-05
 15.788  0.247E-03
 15.798  0.214E-02
 15.808  0.634E-02
 15.818  0.648E-02
 15.828  0.243E-02
 15.838  0.397E-03
 15.848  0.360E-04
 15.858  0.166E-05
 15.868  0.310E-07
 15.878  0.205E-09
 15.888  0.465E-12
 15.898  0.360E-15
 15.908  0.000E+00
 15.918  0.000E+00
 15.928  0.408E-12
 15.938  0.283E-09
 15.948  0.668E-07
 15.958  0.532E-05
 15.968  0.145E-03
 15.978  0.133E-02
 15.988  0.416E-02
 15.998  0.444E-02
 16.008  0.164E-02
 16.018  0.938E-03
 16.028  0.390E-02
 16.038  0.692E-02
 16.048  0.418E-02
 16.058  0.887E-03
 16.068  0.727E-03
 16.078  0.528E-02
 16.088  0.142E-01
 16.098  0.130E-01
 16.108  0.401E-02
 16.118  0.421E-03
 16.128  0.151E-04
 16.138  0.353E-06
 16.148  0.132E-04
 16.158  0.347E-03
 16.168  0.309E-02
 16.178  0.933E-02
 16.188  0.956E-02
 16.198  0.333E-02
 16.208  0.424E-03
 16.218  0.288E-03
 16.228  0.793E-03
 16.238  0.784E-03
 16.248  0.263E-03
 16.258  0.300E-04
 16.268  0.116E-05
 16.278  0.143E-06
 16.288  0.129E-04
 16.298  0.445E-03
 16.308  0.522E-02
 16.318  0.207E-01
 16.328  0.278E-01
 16.338  0.127E-01
 16.348  0.198E-02
 16.358  0.105E-03
 16.368  0.114E-04
 16.378  0.254E-03
 16.388  0.230E-02
 16.398  0.704E-02
 16.408  0.732E-02
 16.418  0.259E-02
 16.428  0.310E-03
 16.438  0.201E-04
 16.448  0.229E-03
 16.458  0.238E-02
 16.468  0.881E-02
 16.478  0.167E-01
 16.488  0.333E-01
 16.498  0.432E-01
 16.508  0.210E-01
 16.518  0.351E-02
 16.528  0.199E-03
 16.538  0.384E-05
 16.548  0.251E-07
 16.558  0.841E-10
 16.568  0.114E-07
 16.578  0.154E-05
 16.588  0.712E-04
 16.598  0.111E-02
 16.608  0.595E-02
 16.618  0.114E-01
 16.628  0.116E-01
 16.638  0.138E-01
 16.648  0.104E-01
 16.658  0.303E-02
 16.668  0.318E-02
 16.678  0.178E-01
 16.688  0.371E-01
 16.698  0.269E-01
 16.708  0.795E-02
 16.718  0.172E-02
 16.728  0.103E-02
 16.738  0.752E-02
 16.748  0.258E-01
 16.758  0.301E-01
 16.768  0.119E-01
 16.778  0.160E-02
 16.788  0.730E-04
 16.798  0.113E-05
 16.808  0.320E-07
 16.818  0.348E-05
 16.828  0.158E-03
 16.838  0.244E-02
 16.848  0.128E-01
 16.858  0.227E-01
 16.868  0.137E-01
 16.878  0.281E-02
 16.888  0.374E-03
 16.898  0.291E-02
 16.908  0.160E-01
 16.918  0.299E-01
 16.928  0.191E-01
 16.938  0.628E-02
 16.948  0.171E-01
 16.958  0.494E-01
 16.968  0.547E-01
 16.978  0.223E-01
 16.988  0.770E-02
 16.998  0.258E-01
 17.008  0.487E-01
 17.018  0.316E-01
 17.028  0.694E-02
 17.038  0.519E-03
 17.048  0.131E-04
 17.058  0.113E-06
 17.068  0.111E-08
 17.078  0.235E-06
 17.088  0.251E-04
 17.098  0.946E-03
 17.108  0.126E-01
 17.118  0.588E-01
 17.128  0.957E-01
 17.138  0.540E-01
 17.148  0.105E-01
 17.158  0.711E-03
 17.168  0.214E-03
 17.178  0.129E-02
 17.188  0.293E-02
 17.198  0.356E-02
 17.208  0.115E-01
 17.218  0.294E-01
 17.228  0.268E-01
 17.238  0.826E-02
 17.248  0.868E-03
 17.258  0.309E-04
 17.268  0.387E-06
 17.278  0.172E-05
 17.288  0.846E-04
 17.298  0.141E-02
 17.308  0.806E-02
 17.318  0.170E-01
 17.328  0.215E-01
 17.338  0.300E-01
 17.348  0.300E-01
 17.358  0.190E-01
 17.368  0.127E-01
 17.378  0.379E-01
 17.388  0.825E-01
 17.398  0.966E-01
 17.408  0.762E-01
 17.418  0.414E-01
 17.428  0.522E-01
 17.438  0.844E-01
 17.448  0.682E-01
 17.458  0.243E-01
 17.468  0.339E-02
 17.478  0.169E-03
 17.488  0.293E-05
 17.498  0.174E-07
 17.508  0.400E-08
 17.518  0.862E-06
 17.528  0.636E-04
 17.538  0.160E-02
 17.548  0.136E-01
 17.558  0.410E-01
 17.568  0.563E-01
 17.578  0.755E-01
 17.588  0.763E-01
 17.598  0.306E-01
 17.608  0.679E-02
 17.618  0.958E-02
 17.628  0.149E-01
 17.638  0.234E-01
 17.648  0.313E-01
 17.658  0.178E-01
 17.668  0.416E-02
 17.678  0.453E-03
 17.688  0.236E-04
 17.698  0.786E-06
 17.708  0.282E-04
 17.718  0.961E-03
 17.728  0.111E-01
 17.738  0.438E-01
 17.748  0.585E-01
 17.758  0.265E-01
 17.768  0.489E-02
 17.778  0.840E-02
 17.788  0.275E-01
 17.798  0.335E-01
 17.808  0.378E-01
 17.818  0.107E+00
 17.828  0.164E+00
 17.838  0.118E+00
 17.848  0.843E-01
 17.858  0.779E-01
 17.868  0.716E-01
 17.878  0.509E-01
 17.888  0.364E-01
 17.898  0.474E-01
 17.908  0.309E-01
 17.918  0.699E-02
 17.928  0.537E-03
 17.938  0.140E-04
 17.948  0.514E-05
 17.958  0.187E-03
 17.968  0.244E-02
 17.978  0.129E-01
 17.988  0.404E-01
 17.998  0.834E-01
 18.008  0.781E-01
 18.018  0.280E-01
 18.028  0.630E-02
 18.038  0.215E-01
 18.048  0.653E-01
 18.058  0.697E-01
 18.068  0.344E-01
 18.078  0.294E-01
 18.088  0.388E-01
 18.098  0.471E-01
 18.108  0.639E-01
 18.118  0.583E-01
 18.128  0.554E-01
 18.138  0.543E-01
 18.148  0.224E-01
 18.158  0.321E-02
 18.168  0.640E-03
 18.178  0.678E-02
 18.188  0.406E-01
 18.198  0.106E+00
 18.208  0.127E+00
 18.218  0.936E-01
 18.228  0.606E-01
 18.238  0.535E-01
 18.248  0.546E-01
 18.258  0.696E-01
 18.268  0.112E+00
 18.278  0.139E+00
 18.288  0.843E-01
 18.298  0.197E-01
 18.308  0.246E-02
 18.318  0.114E-01
 18.328  0.544E-01
 18.338  0.881E-01
 18.348  0.487E-01
 18.358  0.125E-01
 18.368  0.281E-01
 18.378  0.797E-01
 18.388  0.937E-01
 18.398  0.783E-01
 18.408  0.976E-01
 18.418  0.140E+00
 18.428  0.133E+00
 18.438  0.889E-01
 18.448  0.662E-01
 18.458  0.626E-01
 18.468  0.862E-01
 18.478  0.817E-01
 18.488  0.836E-01
 18.498  0.770E-01
 18.508  0.596E-01
 18.518  0.573E-01
 18.528  0.564E-01
 18.538  0.425E-01
 18.548  0.226E-01
 18.558  0.182E-01
 18.568  0.463E-01
 18.578  0.109E+00
 18.588  0.154E+00
 18.598  0.152E+00
 18.608  0.120E+00
 18.618  0.751E-01
 18.628  0.395E-01
 18.638  0.410E-01
 18.648  0.431E-01
 18.658  0.425E-01
 18.668  0.844E-01
 18.678  0.155E+00
 18.688  0.221E+00
 18.698  0.200E+00
 18.708  0.915E-01
 18.718  0.331E-01
 18.728  0.101E+00
 18.738  0.249E+00
 18.748  0.257E+00
 18.758  0.148E+00
 18.768  0.728E-01
 18.778  0.924E-01
 18.788  0.144E+00
 18.798  0.105E+00
 18.808  0.473E-01
 18.818  0.446E-01
 18.828  0.109E+00
 18.838  0.186E+00
 18.848  0.192E+00
 18.858  0.115E+00
 18.868  0.994E-01
 18.878  0.156E+00
 18.888  0.162E+00
 18.898  0.195E+00
 18.908  0.227E+00
 18.918  0.172E+00
 18.928  0.108E+00
 18.938  0.832E-01
 18.948  0.770E-01
 18.958  0.120E+00
 18.968  0.189E+00
 18.978  0.181E+00
 18.988  0.140E+00
 18.998  0.165E+00
 19.008  0.205E+00
 19.018  0.191E+00
 19.028  0.154E+00
 19.038  0.121E+00
 19.048  0.145E+00
 19.058  0.275E+00
 19.068  0.358E+00
 19.078  0.258E+00
 19.088  0.125E+00
 19.098  0.118E+00
 19.108  0.182E+00
 19.118  0.194E+00
 19.128  0.163E+00
 19.138  0.999E-01
 19.148  0.577E-01
 19.158  0.743E-01
 19.168  0.884E-01
 19.178  0.589E-01
 19.188  0.367E-01
 19.198  0.415E-01
 19.208  0.537E-01
 19.218  0.713E-01
 19.228  0.686E-01
 19.238  0.377E-01
 19.248  0.121E-01
 19.258  0.785E-02
 19.268  0.735E-02
 19.278  0.485E-02
 19.288  0.175E-02
 19.298  0.250E-03
 19.308  0.125E-04
 19.318  0.213E-06
 19.328  0.124E-08
 19.338  0.244E-11
 19.348  0.163E-14
 19.358  0.162E-12
 19.368  0.126E-09
 19.378  0.333E-07
 19.388  0.299E-05
 19.398  0.910E-04
 19.408  0.940E-03
 19.418  0.330E-02
 19.428  0.393E-02
 19.438  0.159E-02
 19.448  0.301E-03
 19.458  0.766E-03
 19.468  0.250E-02
 19.478  0.383E-02
 19.488  0.416E-02
 19.498  0.293E-02
 19.508  0.288E-02
 19.518  0.568E-02
 19.528  0.485E-02
 19.538  0.145E-02
 19.548  0.625E-03
 19.558  0.294E-02
 19.568  0.690E-02
 19.578  0.946E-02
 19.588  0.111E-01
 19.598  0.983E-02
 19.608  0.597E-02
 19.618  0.442E-02
 19.628  0.649E-02
 19.638  0.607E-02
 19.648  0.338E-02
 19.658  0.104E-02
 19.668  0.136E-03
 19.678  0.643E-05
 19.688  0.108E-06
 19.698  0.381E-06
 19.708  0.217E-04
 19.718  0.419E-03
 19.728  0.274E-02
 19.738  0.609E-02
 19.748  0.460E-02
 19.758  0.119E-02
 19.768  0.308E-03
 19.778  0.203E-02
 19.788  0.712E-02
 19.798  0.918E-02
 19.808  0.459E-02
 19.818  0.909E-03
 19.828  0.707E-04
 19.838  0.209E-05
 19.848  0.305E-05
 19.858  0.114E-03
 19.868  0.156E-02
 19.878  0.826E-02
 19.888  0.175E-01
 19.898  0.148E-01
 19.908  0.484E-02
 19.918  0.103E-02
 19.928  0.234E-02
 19.938  0.399E-02
 19.948  0.254E-02
 19.958  0.282E-02
 19.968  0.897E-02
 19.978  0.152E-01
 19.988  0.181E-01
 19.998  0.155E-01
 20.008  0.115E-01
 20.018  0.930E-02
 20.028  0.753E-02
 20.038  0.738E-02
 20.048  0.458E-02
 20.058  0.175E-02
 20.068  0.340E-02
 20.078  0.860E-02
 20.088  0.849E-02
 20.098  0.397E-02
 20.108  0.116E-02
 20.118  0.317E-03
 20.128  0.133E-02
 20.138  0.423E-02
 20.148  0.601E-02
 20.158  0.799E-02
 20.168  0.922E-02
 20.178  0.501E-02
 20.188  0.241E-02
 20.198  0.404E-02
 20.208  0.372E-02
 20.218  0.118E-02
 20.228  0.138E-03
 20.238  0.342E-03
 20.248  0.368E-02
 20.258  0.141E-01
 20.268  0.193E-01
 20.278  0.953E-02
 20.288  0.228E-02
 20.298  0.586E-02
 20.308  0.200E-01
 20.318  0.288E-01
 20.328  0.264E-01
 20.338  0.254E-01
 20.348  0.184E-01
 20.358  0.115E-01
 20.368  0.723E-02
 20.378  0.619E-02
 20.388  0.137E-01
 20.398  0.192E-01
 20.408  0.980E-02
 20.418  0.171E-02
 20.428  0.102E-03
 20.438  0.104E-04
 20.448  0.144E-03
 20.458  0.975E-03
 20.468  0.239E-02
 20.478  0.252E-02
 20.488  0.402E-02
 20.498  0.856E-02
 20.508  0.120E-01
 20.518  0.187E-01
 20.528  0.235E-01
 20.538  0.235E-01
 20.548  0.291E-01
 20.558  0.281E-01
 20.568  0.248E-01
 20.578  0.248E-01
 20.588  0.247E-01
 20.598  0.245E-01
 20.608  0.140E-01
 20.618  0.564E-02
 20.628  0.572E-02
 20.638  0.675E-02
 20.648  0.500E-02
 20.658  0.692E-02
 20.668  0.127E-01
 20.678  0.206E-01
 20.688  0.272E-01
 20.698  0.306E-01
 20.708  0.293E-01
 20.718  0.273E-01
 20.728  0.374E-01
 20.738  0.428E-01
 20.748  0.326E-01
 20.758  0.151E-01
 20.768  0.633E-02
